Summary
[Data Information]
Data is:,Measurement Data
Dataset Name:,RawData
Sample Name:,20-30-B
Sample ID:,1
Edinburgh
Analyst:,Alexandra
Date/Time:,19/10/2023 14:41:01
Comments
Parameter File Name:,Uvvis_confirm_alexandra.vspm
Report File Name
[Software Information]
Software Name:,LabSolutions UV-Vis
Version:,1.12
[Instrument Information]
Instrument Name:,UV
Instrument Type:,UV-1900 Series
Model (S/N):,1900 (A12535951280)

Parameter
[Measurement]
Start:,665 nm
End:,250 nm
Data Interval:,1.0
Scan Speed:,Medium speed
Spectrum Type:,Absorbance
[Accessories]
Accessories:,None
[Advanced]
Light Source Switch Wavelength:,340.00
S/R Switch:,Standard
[Repeat]
Repeat Measurement:,OFF
[Post-processing]
Spectrum Transformation:,OFF
Data Processing Table:,OFF
Print:,OFF

Wavelength (nm),Absorbance
250.0,0.356
251.0,0.354
252.0,0.352
253.0,0.350
254.0,0.348
255.0,0.345
256.0,0.343
257.0,0.340
258.0,0.338
259.0,0.335
260.0,0.332
261.0,0.329
262.0,0.326
263.0,0.323
264.0,0.320
265.0,0.316
266.0,0.312
267.0,0.309
268.0,0.305
269.0,0.302
270.0,0.298
271.0,0.294
272.0,0.291
273.0,0.287
274.0,0.283
275.0,0.280
276.0,0.276
277.0,0.272
278.0,0.269
279.0,0.265
280.0,0.261
281.0,0.258
282.0,0.254
283.0,0.251
284.0,0.247
285.0,0.244
286.0,0.240
287.0,0.237
288.0,0.234
289.0,0.231
290.0,0.228
291.0,0.225
292.0,0.222
293.0,0.219
294.0,0.216
295.0,0.213
296.0,0.210
297.0,0.207
298.0,0.205
299.0,0.202
300.0,0.199
301.0,0.196
302.0,0.193
303.0,0.191
304.0,0.188
305.0,0.185
306.0,0.183
307.0,0.180
308.0,0.177
309.0,0.175
310.0,0.172
311.0,0.170
312.0,0.167
313.0,0.165
314.0,0.162
315.0,0.159
316.0,0.157
317.0,0.155
318.0,0.152
319.0,0.150
320.0,0.148
321.0,0.146
322.0,0.144
323.0,0.142
324.0,0.140
325.0,0.138
326.0,0.136
327.0,0.134
328.0,0.132
329.0,0.130
330.0,0.128
331.0,0.127
332.0,0.125
333.0,0.123
334.0,0.122
335.0,0.120
336.0,0.118
337.0,0.116
338.0,0.115
339.0,0.113
340.0,0.111
341.0,0.110
342.0,0.108
343.0,0.107
344.0,0.105
345.0,0.104
346.0,0.102
347.0,0.101
348.0,0.099
349.0,0.098
350.0,0.096
351.0,0.095
352.0,0.093
353.0,0.092
354.0,0.091
355.0,0.089
356.0,0.088
357.0,0.086
358.0,0.085
359.0,0.084
360.0,0.082
361.0,0.081
362.0,0.080
363.0,0.079
364.0,0.077
365.0,0.076
366.0,0.074
367.0,0.073
368.0,0.072
369.0,0.070
370.0,0.069
371.0,0.068
372.0,0.067
373.0,0.065
374.0,0.064
375.0,0.063
376.0,0.062
377.0,0.061
378.0,0.059
379.0,0.058
380.0,0.057
381.0,0.056
382.0,0.055
383.0,0.054
384.0,0.053
385.0,0.052
386.0,0.051
387.0,0.050
388.0,0.049
389.0,0.048
390.0,0.047
391.0,0.046
392.0,0.045
393.0,0.045
394.0,0.044
395.0,0.043
396.0,0.042
397.0,0.042
398.0,0.041
399.0,0.040
400.0,0.040
401.0,0.039
402.0,0.039
403.0,0.038
404.0,0.037
405.0,0.037
406.0,0.036
407.0,0.036
408.0,0.035
409.0,0.035
410.0,0.034
411.0,0.034
412.0,0.033
413.0,0.033
414.0,0.032
415.0,0.031
416.0,0.031
417.0,0.030
418.0,0.030
419.0,0.029
420.0,0.029
421.0,0.029
422.0,0.028
423.0,0.028
424.0,0.027
425.0,0.027
426.0,0.026
427.0,0.026
428.0,0.025
429.0,0.025
430.0,0.025
431.0,0.024
432.0,0.024
433.0,0.024
434.0,0.023
435.0,0.023
436.0,0.023
437.0,0.022
438.0,0.022
439.0,0.022
440.0,0.021
441.0,0.021
442.0,0.021
443.0,0.021
444.0,0.020
445.0,0.020
446.0,0.020
447.0,0.020
448.0,0.019
449.0,0.019
450.0,0.019
451.0,0.019
452.0,0.019
453.0,0.019
454.0,0.018
455.0,0.018
456.0,0.018
457.0,0.018
458.0,0.018
459.0,0.018
460.0,0.017
461.0,0.017
462.0,0.017
463.0,0.017
464.0,0.017
465.0,0.017
466.0,0.016
467.0,0.016
468.0,0.016
469.0,0.016
470.0,0.016
471.0,0.016
472.0,0.015
473.0,0.015
474.0,0.015
475.0,0.015
476.0,0.015
477.0,0.015
478.0,0.014
479.0,0.014
480.0,0.014
481.0,0.014
482.0,0.014
483.0,0.014
484.0,0.013
485.0,0.013
486.0,0.013
487.0,0.013
488.0,0.013
489.0,0.012
490.0,0.012
491.0,0.012
492.0,0.012
493.0,0.012
494.0,0.012
495.0,0.011
496.0,0.011
497.0,0.011
498.0,0.011
499.0,0.011
500.0,0.010
501.0,0.010
502.0,0.010
503.0,0.010
504.0,0.010
505.0,0.010
506.0,0.009
507.0,0.009
508.0,0.009
509.0,0.009
510.0,0.009
511.0,0.009
512.0,0.009
513.0,0.008
514.0,0.008
515.0,0.008
516.0,0.008
517.0,0.008
518.0,0.008
519.0,0.008
520.0,0.007
521.0,0.007
522.0,0.007
523.0,0.007
524.0,0.007
525.0,0.007
526.0,0.007
527.0,0.007
528.0,0.007
529.0,0.006
530.0,0.006
531.0,0.006
532.0,0.006
533.0,0.006
534.0,0.006
535.0,0.006
536.0,0.006
537.0,0.006
538.0,0.006
539.0,0.005
540.0,0.005
541.0,0.005
542.0,0.005
543.0,0.005
544.0,0.005
545.0,0.005
546.0,0.005
547.0,0.005
548.0,0.005
549.0,0.005
550.0,0.005
551.0,0.005
552.0,0.004
553.0,0.004
554.0,0.004
555.0,0.004
556.0,0.004
557.0,0.004
558.0,0.004
559.0,0.004
560.0,0.004
561.0,0.004
562.0,0.004
563.0,0.004
564.0,0.004
565.0,0.004
566.0,0.003
567.0,0.003
568.0,0.003
569.0,0.003
570.0,0.003
571.0,0.003
572.0,0.003
573.0,0.003
574.0,0.003
575.0,0.003
576.0,0.003
577.0,0.003
578.0,0.003
579.0,0.003
580.0,0.003
581.0,0.003
582.0,0.003
583.0,0.003
584.0,0.003
585.0,0.002
586.0,0.002
587.0,0.002
588.0,0.002
589.0,0.002
590.0,0.002
591.0,0.002
592.0,0.002
593.0,0.002
594.0,0.002
595.0,0.002
596.0,0.002
597.0,0.002
598.0,0.002
599.0,0.002
600.0,0.002
601.0,0.002
602.0,0.002
603.0,0.002
604.0,0.002
605.0,0.002
606.0,0.002
607.0,0.002
608.0,0.002
609.0,0.002
610.0,0.002
611.0,0.002
612.0,0.001
613.0,0.001
614.0,0.001
615.0,0.001
616.0,0.001
617.0,0.001
618.0,0.001
619.0,0.001
620.0,0.001
621.0,0.001
622.0,0.001
623.0,0.001
624.0,0.001
625.0,0.001
626.0,0.001
627.0,0.001
628.0,0.001
629.0,0.001
630.0,0.001
631.0,0.001
632.0,0.001
633.0,0.001
634.0,0.001
635.0,0.001
636.0,0.001
637.0,0.001
638.0,0.001
639.0,0.001
640.0,0.001
641.0,0.001
642.0,0.001
643.0,0.001
644.0,0.001
645.0,0.001
646.0,0.001
647.0,0.001
648.0,0.001
649.0,0.001
650.0,0.001
651.0,0.001
652.0,0.001
653.0,0.001
654.0,0.001
655.0,0.001
656.0,0.001
657.0,0.001
658.0,0.001
659.0,0.001
660.0,0.001
661.0,0.001
662.0,0.001
663.0,0.001
664.0,0.001
665.0,0.001
