Summary
[Data Information]
Data is:,Measurement Data
Dataset Name:,RawData
Sample Name:,Blank_5
Sample ID:,5
Edinburgh
Analyst:,Alexandra
Date/Time:,19/10/2023 12:51:29
Comments:,LOD
Parameter File Name:,Uvvis_confirm_alexandra.vspm
Report File Name
[Software Information]
Software Name:,LabSolutions UV-Vis
Version:,1.12
[Instrument Information]
Instrument Name:,UV
Instrument Type:,UV-1900 Series
Model (S/N):,1900 (A12535951280)

Parameter
[Measurement]
Start:,665 nm
End:,250 nm
Data Interval:,1.0
Scan Speed:,Medium speed
Spectrum Type:,Absorbance
[Accessories]
Accessories:,None
[Advanced]
Light Source Switch Wavelength:,340.00
S/R Switch:,Standard
[Repeat]
Repeat Measurement:,OFF
[Post-processing]
Spectrum Transformation:,OFF
Data Processing Table:,OFF
Print:,OFF

Wavelength (nm),Absorbance
250.0,-0.041
251.0,-0.041
252.0,-0.041
253.0,-0.041
254.0,-0.040
255.0,-0.040
256.0,-0.040
257.0,-0.040
258.0,-0.040
259.0,-0.040
260.0,-0.039
261.0,-0.039
262.0,-0.039
263.0,-0.038
264.0,-0.038
265.0,-0.038
266.0,-0.038
267.0,-0.037
268.0,-0.037
269.0,-0.037
270.0,-0.036
271.0,-0.036
272.0,-0.036
273.0,-0.036
274.0,-0.036
275.0,-0.036
276.0,-0.036
277.0,-0.036
278.0,-0.035
279.0,-0.035
280.0,-0.035
281.0,-0.035
282.0,-0.035
283.0,-0.035
284.0,-0.035
285.0,-0.036
286.0,-0.036
287.0,-0.036
288.0,-0.036
289.0,-0.036
290.0,-0.036
291.0,-0.036
292.0,-0.036
293.0,-0.036
294.0,-0.037
295.0,-0.037
296.0,-0.037
297.0,-0.038
298.0,-0.038
299.0,-0.038
300.0,-0.039
301.0,-0.039
302.0,-0.039
303.0,-0.040
304.0,-0.040
305.0,-0.040
306.0,-0.041
307.0,-0.041
308.0,-0.041
309.0,-0.041
310.0,-0.041
311.0,-0.041
312.0,-0.041
313.0,-0.041
314.0,-0.041
315.0,-0.041
316.0,-0.041
317.0,-0.041
318.0,-0.041
319.0,-0.040
320.0,-0.040
321.0,-0.040
322.0,-0.040
323.0,-0.039
324.0,-0.039
325.0,-0.039
326.0,-0.038
327.0,-0.038
328.0,-0.037
329.0,-0.037
330.0,-0.037
331.0,-0.036
332.0,-0.036
333.0,-0.036
334.0,-0.035
335.0,-0.035
336.0,-0.035
337.0,-0.034
338.0,-0.034
339.0,-0.034
340.0,-0.033
341.0,-0.032
342.0,-0.032
343.0,-0.031
344.0,-0.031
345.0,-0.031
346.0,-0.030
347.0,-0.030
348.0,-0.030
349.0,-0.029
350.0,-0.029
351.0,-0.029
352.0,-0.028
353.0,-0.028
354.0,-0.028
355.0,-0.028
356.0,-0.027
357.0,-0.027
358.0,-0.027
359.0,-0.026
360.0,-0.026
361.0,-0.026
362.0,-0.025
363.0,-0.025
364.0,-0.025
365.0,-0.025
366.0,-0.024
367.0,-0.024
368.0,-0.024
369.0,-0.023
370.0,-0.023
371.0,-0.023
372.0,-0.023
373.0,-0.022
374.0,-0.022
375.0,-0.022
376.0,-0.022
377.0,-0.021
378.0,-0.021
379.0,-0.021
380.0,-0.021
381.0,-0.020
382.0,-0.020
383.0,-0.020
384.0,-0.020
385.0,-0.019
386.0,-0.019
387.0,-0.019
388.0,-0.019
389.0,-0.019
390.0,-0.018
391.0,-0.018
392.0,-0.018
393.0,-0.018
394.0,-0.018
395.0,-0.017
396.0,-0.017
397.0,-0.017
398.0,-0.017
399.0,-0.017
400.0,-0.017
401.0,-0.016
402.0,-0.016
403.0,-0.016
404.0,-0.016
405.0,-0.016
406.0,-0.016
407.0,-0.015
408.0,-0.015
409.0,-0.015
410.0,-0.015
411.0,-0.015
412.0,-0.015
413.0,-0.015
414.0,-0.014
415.0,-0.014
416.0,-0.014
417.0,-0.014
418.0,-0.014
419.0,-0.014
420.0,-0.014
421.0,-0.014
422.0,-0.014
423.0,-0.013
424.0,-0.013
425.0,-0.013
426.0,-0.013
427.0,-0.013
428.0,-0.013
429.0,-0.013
430.0,-0.013
431.0,-0.013
432.0,-0.012
433.0,-0.012
434.0,-0.012
435.0,-0.012
436.0,-0.012
437.0,-0.012
438.0,-0.012
439.0,-0.012
440.0,-0.012
441.0,-0.012
442.0,-0.012
443.0,-0.011
444.0,-0.011
445.0,-0.011
446.0,-0.011
447.0,-0.011
448.0,-0.011
449.0,-0.011
450.0,-0.011
451.0,-0.011
452.0,-0.011
453.0,-0.011
454.0,-0.011
455.0,-0.010
456.0,-0.010
457.0,-0.010
458.0,-0.010
459.0,-0.010
460.0,-0.010
461.0,-0.010
462.0,-0.010
463.0,-0.010
464.0,-0.010
465.0,-0.010
466.0,-0.010
467.0,-0.010
468.0,-0.010
469.0,-0.010
470.0,-0.010
471.0,-0.009
472.0,-0.009
473.0,-0.009
474.0,-0.009
475.0,-0.009
476.0,-0.009
477.0,-0.009
478.0,-0.009
479.0,-0.009
480.0,-0.009
481.0,-0.009
482.0,-0.009
483.0,-0.009
484.0,-0.009
485.0,-0.009
486.0,-0.009
487.0,-0.009
488.0,-0.008
489.0,-0.008
490.0,-0.008
491.0,-0.008
492.0,-0.008
493.0,-0.008
494.0,-0.008
495.0,-0.008
496.0,-0.008
497.0,-0.008
498.0,-0.008
499.0,-0.008
500.0,-0.008
501.0,-0.008
502.0,-0.008
503.0,-0.008
504.0,-0.008
505.0,-0.008
506.0,-0.008
507.0,-0.008
508.0,-0.008
509.0,-0.008
510.0,-0.008
511.0,-0.007
512.0,-0.007
513.0,-0.007
514.0,-0.007
515.0,-0.007
516.0,-0.007
517.0,-0.007
518.0,-0.007
519.0,-0.007
520.0,-0.007
521.0,-0.007
522.0,-0.007
523.0,-0.007
524.0,-0.007
525.0,-0.007
526.0,-0.007
527.0,-0.007
528.0,-0.007
529.0,-0.007
530.0,-0.007
531.0,-0.007
532.0,-0.007
533.0,-0.007
534.0,-0.007
535.0,-0.007
536.0,-0.007
537.0,-0.007
538.0,-0.006
539.0,-0.006
540.0,-0.006
541.0,-0.006
542.0,-0.006
543.0,-0.006
544.0,-0.006
545.0,-0.006
546.0,-0.006
547.0,-0.006
548.0,-0.006
549.0,-0.006
550.0,-0.006
551.0,-0.006
552.0,-0.006
553.0,-0.006
554.0,-0.006
555.0,-0.006
556.0,-0.006
557.0,-0.006
558.0,-0.006
559.0,-0.006
560.0,-0.006
561.0,-0.006
562.0,-0.006
563.0,-0.006
564.0,-0.006
565.0,-0.006
566.0,-0.006
567.0,-0.006
568.0,-0.006
569.0,-0.006
570.0,-0.006
571.0,-0.006
572.0,-0.006
573.0,-0.006
574.0,-0.006
575.0,-0.006
576.0,-0.006
577.0,-0.006
578.0,-0.006
579.0,-0.006
580.0,-0.006
581.0,-0.006
582.0,-0.006
583.0,-0.006
584.0,-0.006
585.0,-0.006
586.0,-0.006
587.0,-0.005
588.0,-0.005
589.0,-0.005
590.0,-0.005
591.0,-0.005
592.0,-0.005
593.0,-0.005
594.0,-0.005
595.0,-0.005
596.0,-0.005
597.0,-0.005
598.0,-0.005
599.0,-0.005
600.0,-0.005
601.0,-0.005
602.0,-0.005
603.0,-0.005
604.0,-0.005
605.0,-0.005
606.0,-0.005
607.0,-0.005
608.0,-0.005
609.0,-0.005
610.0,-0.005
611.0,-0.005
612.0,-0.005
613.0,-0.005
614.0,-0.005
615.0,-0.005
616.0,-0.005
617.0,-0.005
618.0,-0.005
619.0,-0.005
620.0,-0.005
621.0,-0.005
622.0,-0.005
623.0,-0.005
624.0,-0.005
625.0,-0.005
626.0,-0.005
627.0,-0.005
628.0,-0.005
629.0,-0.005
630.0,-0.005
631.0,-0.005
632.0,-0.005
633.0,-0.005
634.0,-0.005
635.0,-0.005
636.0,-0.005
637.0,-0.005
638.0,-0.005
639.0,-0.005
640.0,-0.005
641.0,-0.005
642.0,-0.005
643.0,-0.005
644.0,-0.005
645.0,-0.005
646.0,-0.005
647.0,-0.005
648.0,-0.005
649.0,-0.005
650.0,-0.005
651.0,-0.005
652.0,-0.005
653.0,-0.005
654.0,-0.004
655.0,-0.004
656.0,-0.004
657.0,-0.004
658.0,-0.004
659.0,-0.004
660.0,-0.004
661.0,-0.004
662.0,-0.004
663.0,-0.004
664.0,-0.004
665.0,-0.004
